nu(Mhz) 210.0K

19.998 9.2359
15.028 12.629
11.291 16.631
8.4811 23.972
6.371 32.614
4.7863 44.497
3.595 56.607
2.7008 78.486
2.0284 93.978
1.5241 133.61
1.1457 175.64
0.86063 216.19
0.64669 265.99
0.48522 327.87
0.36496 398.61
0.27418 374.54
0.20565 537.74
0.15439 638.8
0.11636 732.32
0.087429 792.14
0.065451 1117.8
0.049444 236.15
0.036893 752.09
0.027746 906.36
0.020809 2617.5
0.015657 1665.1
