nu(Mhz) 230.5K

19.998 12.925
13.942 18.352
9.721 27.555
6.7797 42.261
6.7797 44.164
4.7272 50.585
3.2963 76.022
2.2979 114.03
1.6018 155.63
1.1169 189.23
0.77841 261.86
0.5435 306.26
0.37857 399.69
0.26426 491.47
0.18386 774.8
0.12863 930.1
0.089325 657.01
0.06223 669.45
0.0436 849.35
0.030464 568.0
0.02104 178.9
0.014676 1545.4
0.010245 1741.7
0.0071372 2412.3
