nu(Mhz) 199.2K

19.998 0.21413
13.406 0.28469
8.985 0.37049
8.985 0.38075
6.0219 0.55248
4.037 0.69204
2.706 1.0053
1.8142 1.5279
1.2149 2.1114
0.8154 3.0566
0.54585 4.5366
0.36593 6.7472
0.24575 9.225
0.16457 12.469
0.11045 17.612
0.073862 22.05
0.049444 36.783
0.03331 41.98
0.022212 52.872
0.014869 69.952
0.0099244 85.987
