nu(Mhz) 209.5K

19.998 0.29623
14.374 0.3439
10.327 0.46924
7.4209 0.44574
7.4209 0.49216
5.331 0.93296
3.8315 1.8406
2.7534 2.6153
1.9788 3.6123
1.4216 4.3449
1.0213 6.83
0.73406 6.5997
0.52717 12.364
0.37955 16.024
0.27252 24.041
0.19566 32.426
0.14091 48.509
0.10112 73.406
0.072568 97.978
0.05232 146.62
0.037508 289.56
0.026953 383.64
0.019452 533.79
0.013914 575.69
