nu(Mhz) 205.0K

19.998 0.20388
17.084 0.23216
14.599 0.29376
12.471 0.33212
10.652 0.42446
9.1001 0.43499
8.8992 0.5024
6.227 0.75695
4.3536 1.2313
3.0465 1.6014
2.1296 2.0817
1.4908 3.1552
1.0423 4.3495
0.7286 5.3719
0.50995 7.9693
0.35635 11.712
0.24972 16.558
0.17441 25.048
0.12186 33.903
0.085554 52.784
0.059867 69.774
0.041629 98.809
0.02909 162.33
0.020352 220.58
0.014292 370.93
0.0099244 406.32
