nu(Mhz) 260.0K

19.998 18.018
15.09 24.6
11.387 34.524
8.5928 44.095
8.5928 45.534
6.4842 57.075
4.895 75.186
3.6924 93.976
2.7879 116.34
2.104 134.55
1.5877 151.07
1.1974 175.34
0.90405 187.89
0.68176 208.22
0.51452 230.36
0.38844 232.27
0.29285 249.25
0.22111 252.7
0.16717 253.29
0.12579 259.2
0.095133 275.29
0.071712 282.17
0.054157 297.87
0.040978 293.57
0.030744 318.2
0.023172 307.75
0.017504 309.25
0.013172 307.63
0.0099244 308.9
