nu(Mhz) 305.0K

19.998 3.8779
14.763 4.0932
10.898 4.199
8.0458 4.7807
8.0458 4.7286
5.9361 4.9974
4.3836 5.0328
3.2358 4.8831
2.3882 5.0346
1.763 5.244
1.3007 5.3971
0.961 5.4604
0.70834 5.5411
0.5237 5.6073
0.38646 5.6993
0.28514 5.6235
0.21074 5.7488
0.15564 5.6646
0.11473 5.9029
0.084624 6.0117
0.062626 5.8946
0.045963 5.7535
0.033894 5.6816
0.025154 5.8542
0.018573 5.8526
0.013725 5.7335
0.010084 5.9667
0.007409 5.967
0.0054932 5.8619
0.0040628 5.8041
0.0030236 5.6657
