nu(Mhz) 388.3K

11.838 0.74829
9.1097 0.76247
7.0099 0.78515
7.0099 0.74965
5.3938 0.78296
4.1499 0.77999
3.1929 0.78714
2.4577 0.79062
1.8901 0.80681
1.4541 0.80758
1.1185 0.81375
0.86064 0.7936
0.66216 0.79791
0.50995 0.79848
0.39242 0.81093
0.30154 0.80657
0.2325 0.82043
0.17843 0.80679
0.13735 0.81139
0.10574 0.82552
0.081408 0.82618
0.062629 0.83561
0.048037 0.82411
0.037198 0.82677
0.028546 0.82011
0.021973 0.84258
0.016876 0.84441
0.012989 0.83231
0.0099244 0.84605
