nu(Mhz) 190.1K

12.036 92.427
10.163 104.25
8.5788 122.28
7.2439 139.05
6.1161 146.47
5.1631 169.11
4.3603 166.69
3.6801 180.7
3.108 181.43
2.6228 196.98
2.2141 200.72
1.8705 207.77
1.5797 215.27
1.3337 217.3
1.1253 215.53
0.95009 218.05
0.8025 223.51
0.67782 218.81
0.57206 234.32
0.483 233.12
0.40755 234.79
0.34409 226.25
0.29027 238.26
0.24496 241.56
